Steller Spectroscopy HD 200207	
	
Date of Observation:	7/23/2010
Star Observed:	HD 200207
Spectral Class:	G5
	
Wavelength (A)	Intensity (Counts)
6200.4	13654.23
6201.2	14272.89
6202	15202.08
6202.8	15394.79
6203.6	15202.97
6204.4	15039.65
6205.2	14714.85
6206	15160.13
6206.8	15198.14
6207.6	15473.72
6208.4	15618.22
6209.2	15635.58
6210	15403.82
6210.8	15128.28
6211.6	15774.14
6212.4	15167.64
6213.2	14303.3
6214	13602.58
6214.8	14279.19
6215.6	13911.64
6216.4	13940.76
6217.2	14966.54
6218	15235.51
6218.8	14725.69
6219.6	13927.54
6220.4	14350.08
6221.2	14251.14
6222	14537.3
6222.8	15487.32
6223.6	15272.8
6224.4	14451.86
6225.2	14973.28
6226	15339.85
6226.8	15164.18
6227.6	14948.59
6228.4	15110.49
6229.2	14791.78
6230	14015.48
6230.8	13026.93
6231.6	13780.42
6232.4	14498.48
6233.2	13967.32
6234	15018.47
6234.8	15540.5
6235.6	15610.11
6236.4	15495.7
6237.2	15148.52
6238	14795.24
6238.8	14797.85
6239.6	14956.23
6240.4	14327.85
6241.2	14528.66
6242	15621.15
6242.8	14619.99
6243.6	13476.36
6244.4	14059.95
6245.2	14695.3
6246	14086.45
6246.8	14088.54
6247.6	15032.88
6248.4	15586.96
6249.2	15580.1
6250	15208.7
6250.8	15548.76
6251.6	15035.72
6252.4	13755.55
6253.2	13935.24
6254	14196.55
6254.8	13696.65
6255.6	14709.27
6256.4	13816.74
6257.2	14170.1
6258	14306.51
6258.8	13395.52
6259.6	14453.14
6260.4	15279.61
6261.2	14707.97
6262	14846.47
6262.8	15444.44
6263.6	15929.68
6264.4	15765.03
6265.2	14586.36
6266	14449.77
6266.8	15452.11
6267.6	15602.52
6268.4	15385.94
6269.2	15403.48
6270	15026.91
6270.8	14772.55
6271.6	15061.29
6272.4	15262.23
6273.2	15576.71
6274	15958.71
6274.8	15240.36
6275.6	15387.6
6276.4	15524.43
6277.2	14910.42
6278	14392.08
6278.8	14655.76
6279.6	14468.87
6280.4	13890.3
6281.2	14130.14
6282	14883.99
6282.8	14350.77
6283.6	14977.46
6284.4	15538.35
6285.2	15017.32
6286	14908.37
6286.8	15278.31
6287.6	15490.96
6288.4	16004.29
6289.2	15787.74
6290	15441.32
6290.8	15018.48
6291.6	14877.15
6292.4	15269.91
6293.2	15110.18
6294	15031.62
6294.8	15883.77
6295.6	15847.25
6296.4	14861
6297.2	14606.48
6298	14388.69
6298.8	14905.88
6299.6	15260.29
6300.4	15220.92
6301.2	14838.47
6302	13858.02
6302.8	14054.49
6303.6	15119.84
6304.4	15642.62
6305.2	15553.37
6306	15290.59
6306.8	15254.12
6307.6	15699.77
6308.4	15768.32
6309.2	15994.77
6310	15706.15
6310.8	15283.36
6311.6	14723.58
6312.4	14965.09
6313.2	15732.12
6314	15985.27
6314.8	14687.26
6315.6	13658.76
6316.4	14371.11
6317.2	15366.18
6318	14365.61
6318.8	13874.46
6319.6	14317.92
6320.4	15074.64
6321.2	15341.94
6322	15480.87
6322.8	14577.79
6323.6	15131.15
6324.4	15900.31
6325.2	15694.35
6326	16023.21
6326.8	15884.28
6327.6	15380.51
6328.4	15420.97
6329.2	16240.41
6330	15616.98
6330.8	15147.22
6331.6	15712.26
6332.4	15909.74
6333.2	15984.71
6334	16304.53
6334.8	15697.31
6335.6	14501.12
6336.4	14400.52
6337.2	14746.84
6338	15732.26
6338.8	15521.17
6339.6	15192.09
6340.4	15568.02
6341.2	16062.42
6342	15824.5
6342.8	15270.79
6343.6	14971.36
6344.4	14395.44
6345.2	15151.63
6346	15656.55
6346.8	15754.01
6347.6	15415.76
6348.4	16053.71
6349.2	16314.02
6350	16228.07
6350.8	16038.01
6351.6	16046.8
6352.4	16250.29
6353.2	16008.41
6354	15998.8
6354.8	15315.59
6355.6	14550.78
6356.4	15665.15
6357.2	15933.53
6358	15610.03
6358.8	14510.25
6359.6	14641.54
6360.4	15136.88
6361.2	14659.97
6362	14658.02
6362.8	14198.72
6363.6	14799.71
6364.4	14958.47
6365.2	15023.43
6366	15778.57
6366.8	15421
6367.6	16057.43
6368.4	16222.81
6369.2	16214.68
6370	15710.1
6370.8	15784.19
6371.6	15934.8
6372.4	16315.3
6373.2	16717.11
6374	16611.13
6374.8	16294.47
6375.6	16095.83
6376.4	16245.54
6377.2	16478.9
6378	16016.43
6378.8	15721.64
6379.6	16164.3
6380.4	16089.01
6381.2	15545.2
6382	16144.52
6382.8	16245.67
6383.6	16316.2
6384.4	16047.5
6385.2	15684.18
6386	16313.07
6386.8	16532.18
6387.6	16459.99
6388.4	16529.95
6389.2	16444.99
6390	16688.29
6390.8	16509.55
6391.6	16399.11
6392.4	15998.93
6393.2	14986.04
6394	14411.64
6394.8	15700.12
6395.6	16292.53
6396.4	16258.15
6397.2	16768.71
6398	16633.26
6398.8	16646.77
6399.6	16048.84
6400.4	13608.26
6401.2	15055.48
6402	16576.8
6402.8	16665.79
6403.6	16470.7
6404.4	16497.23
6405.2	16430.02
6406	16323.9
6406.8	16301.88
6407.6	15295.3
6408.4	14676.58
6409.2	15508.62
6410	16271.74
6410.8	16120.43
6411.6	14983.28
6412.4	15290.58
6413.2	16610.1
6414	16449.67
6414.8	15650.89
6415.6	16079.8
6416.4	16430.96
6417.2	16113.11
6418	16254.6
6418.8	16288.45
6419.6	16153.11
6420.4	15638.88
6421.2	15189.99
6422	14715.43
6422.8	16520.79
6423.6	17181.31
6424.4	16743.31
6425.2	16712.39
6426	16612.1
6426.8	16949.39
6427.6	17132.04
6428.4	16969.91
6429.2	16646.29
6430	16457.27
6430.8	15200.1
6431.6	15030.11
6432.4	16086.43
6433.2	16158.7
6434	16597.54
6434.8	16732.85
6435.6	16996
6436.4	16853.35
6437.2	16728.54
6438	16754.8
6438.8	15546.46
6439.6	14951.56
6440.4	16274.67
6441.2	17225.24
6442	17051.13
6442.8	16845.88
6443.6	16902.25
6444.4	16856.19
6445.2	16734.81
6446	16857.21
6446.8	17092.39
6447.6	17077.43
6448.4	16793.78
6449.2	15717.08
6450	13860.75
6450.8	13843.41
6451.6	16615.45
6452.4	16838.26
6453.2	16881.25
6454	16902.17
6454.8	16837.92
6455.6	16141.69
6456.4	15547.37
6457.2	16136.39
6458	16805.06
6458.8	17328.86
6459.6	17125.96
6460.4	16798.08
6461.2	17110.36
6462	16605.77
6462.8	14148.08
6463.6	14871.27
6464.4	16355
6465.2	16695.07
6466	16873.45
6466.8	16828.06
6467.6	17046.65
6468.4	16967.52
6469.2	16280.68
6470	16247.06
6470.8	16898.04
6471.6	16164.67
6472.4	15928.42
6473.2	17020.38
6474	17263.04
6474.8	17012.17
6475.6	15866.48
6476.4	15987.23
6477.2	16860.21
6478	16800.39
6478.8	16669.48
6479.6	17042.33
6480.4	16792.28
6481.2	16646.33
6482	15790.68
6482.8	15453.14
6483.6	15833.44
6484.4	16516.64
6485.2	17044.74
6486	17104.63
6486.8	17026.48
6487.6	17362.46
6488.4	17359.38
6489.2	17195.16
6490	16992.39
6490.8	16870.94
6491.6	16368.18
6492.4	16655.09
6493.2	16455.18
6494	15250.67
6494.8	14103.54
6495.6	14229.38
6496.4	14595.14
6497.2	14491.06
6498	16140.17
6498.8	16171.25
6499.6	15416.95
6500.4	16376.23
6501.2	17064.58
6502	16707.3
6502.8	17348.9
6503.6	17400.91
6504.4	16902.32
6505.2	17260.34
6506	17676.72
6506.8	17618.21
6507.6	17465.9
6508.4	17240.61
6509.2	17252.43
6510	17125.64
6510.8	17293.33
6511.6	17337.63
6512.4	17248.01
6513.2	17402.04
6514	17456.95
6514.8	17122.43
6515.6	16901.82
6516.4	16235.65
6517.2	16673.36
6518	16615.12
6518.8	16008.28
6519.6	16500.72
6520.4	17153.97
6521.2	17501.42
6522	17606.76
6522.8	17303.46
6523.6	17149.58
6524.4	17443.65
6525.2	17791.22
6526	17604.68
6526.8	16701.92
6527.6	16576.5
6528.4	17170.27
6529.2	17366.62
6530	17959.57
6530.8	18025.5
6531.6	17485.81
6532.4	17216.56
6533.2	16895.76
6534	16862.63
6534.8	17295.42
6535.6	18042.72
6536.4	17681.76
6537.2	17355.48
6538	17364.96
6538.8	17380.92
6539.6	17579.94
6540.4	17673.84
6541.2	17888.71
6542	17698.24
6542.8	17580.05
6543.6	17637.48
6544.4	17676.4
6545.2	17688.7
6546	17002.99
6546.8	16578.14
6547.6	17299.14
6548.4	17424.17
6549.2	17660.78
6550	17582.39
6550.8	17712.27
6551.6	17331.45
6552.4	17252.75
6553.2	17352.19
6554	17258.08
6554.8	16985.1
6555.6	16527.58
6556.4	16526.81
6557.2	17541.75
6558	17503.68
6558.8	17544.06
6559.6	17051.72
6560.4	16309
6561.2	16292.65
6562	14269.9
6562.8	8841.84
6563.6	9502.3
6564.4	14773.27
6565.2	16836.48
6566	17419.22
6566.8	17763.26
6567.6	17860.08
6568.4	17828.92
6569.2	16792.48
6570	16947.31
6570.8	17623.17
6571.6	17759.02
6572.4	17341.23
6573.2	16938.61
6574	17228.63
6574.8	16241.53
6575.6	16669.66
6576.4	17967.1
6577.2	18189.01
6578	18480.92
6578.8	18505.11
6579.6	18157.84
6580.4	17814.7
6581.2	17118.95
6582	17266.05
6582.8	17750.97
6583.6	17797.15
6584.4	17853.2
6585.2	18077.13
6586	17556.96
6586.8	17313.69
6587.6	18330.68
6588.4	18612.34
6589.2	18353.32
6590	18521.54
6590.8	18150.13
6591.6	18128.55
6592.4	17121.57
6593.2	15479
6594	15551.17
6594.8	17082.8
6595.6	17695.78
6596.4	17700.26
6597.2	17758.05
6598	17396.59
6598.8	17303.37
6599.6	17671.15
6600.4	18276.68
6601.2	18534.89
6602	18462.78
6602.8	18331.14
6603.6	18292.67
6604.4	17811.05
6605.2	17488.29
6606	17791.54
6606.8	17724.53
6607.6	17487.51
6608.4	17268.49
6609.2	16632.92
6610	16796.3
6610.8	18492.69
6611.6	18693.44
6612.4	18838.23
6613.2	18144.17
6614	17613.42
6614.8	18369.57
6615.6	18739.46
6616.4	18677.98
6617.2	18656.78
6618	18525.45
6618.8	18737.49
6619.6	18792.36
6620.4	19022.34
6621.2	19134.91
6622	18795.89
6622.8	19070.06
6623.6	18749.22
6624.4	18166.3
6625.2	17668.52
6626	18462.06
6626.8	18846.8
6627.6	18134.01
6628.4	18272.05
6629.2	18562.64
6630	18109.11
6630.8	18146.73
6631.6	17987.8
6632.4	17910.96
6633.2	17371.37
6634	16036.71
6634.8	16985.41
6635.6	17726.13
6636.4	18208.53
6637.2	18476.96
6638	18304.4
6638.8	18424.68
6639.6	17590.64
6640.4	17288.56
6641.2	18490.79
6642	18795.79
6642.8	18371.38
6643.6	16964.59
6644.4	16984.09
6645.2	18121.49
6646	18176.64
6646.8	18250.88
6647.6	17841.49
6648.4	17934.13
6649.2	18370.03
6650	18572.09
6650.8	18499.9
6651.6	18667.12
6652.4	18616.64
6653.2	18729.49
6654	18619.9
6654.8	18773.21
6655.6	18959.95
6656.4	18825.32
6657.2	18680.62
6658	19145.69
6658.8	19048.29
6659.6	18858.24
6660.4	18742.14
6661.2	18276.94
6662	18800.44
6662.8	18031.74
6663.6	16996.75
6664.4	18241.2
6665.2	18919.9
6666	18694.82
6666.8	18654.96
6667.6	18278.51
6668.4	18281.98
6669.2	18370.5
6670	18708.05
6670.8	18709.9
6671.6	18595.46
6672.4	18209.2
6673.2	18285.12
6674	18312.98
6674.8	18700.42
6675.6	18809.06
6676.4	18990.14
6677.2	18617.38
6678	16782.19
6678.8	17293.3
6679.6	18607.01
6680.4	19057.84
6681.2	19171.72
6682	19225.57
6682.8	19353.31
6683.6	19111.05
6684.4	19047.19
6685.2	18853.56
6686	18958.73
6686.8	18805.89
6687.6	18392.1
6688.4	18579.15
6689.2	19162.74
6690	19007.96
6690.8	19060.39
6691.6	19100.93
6692.4	19167.28
6693.2	18987.64
6694	19452.96
6694.8	19385.07
6695.6	18827.36
6696.4	18316.97
6697.2	18459.83
6698	18770.9
6698.8	18395.43
6699.6	18975.25
6700.4	19328.68
6701.2	19126.15
6702	19247.92
6702.8	18963.92
6703.6	18053.13
6704.4	18103.39
6705.2	18001.35
6706	18436.06
6706.8	19409.82
6707.6	18959.73
6708.4	18749.38
6709.2	18671.22
6710	18230.8
6710.8	18004.18
6711.6	18439.51
6712.4	18340.01
6713.2	17908.35
6714	18063.75
6714.8	18183.95
6715.6	17417.28
6716.4	17781.02
6717.2	17232.85
6718	16385.99
6718.8	18001.1
6719.6	18320.97
6720.4	18798.94
6721.2	18720.68
6722	18309.64
6722.8	18668.09
6723.6	19347.95
6724.4	19468.88
6725.2	18697.57
6726	18257.48
6726.8	18074.74
6727.6	18516.98
6728.4	18830.15
6729.2	18744.34
6730	18862.99
6730.8	18989.31
6731.6	19000.23
6732.4	18817.9
6733.2	18377.8
6734	18376.52
6734.8	18544.13
6735.6	18865.19
6736.4	18907.15
6737.2	18652.18
6738	18191.43
6738.8	17864.27
6739.6	18003.4
6740.4	18346.46
6741.2	18888.51
6742	18619.82
6742.8	18293.94
6743.6	17815.35
6744.4	18539.26
6745.2	18404.46
6746	18496.21
6746.8	18263.63
6747.6	18126.18
6748.4	18131.54
6749.2	18425.31
6750	17709.3
6750.8	17791.13
6751.6	18780.89
6752.4	18457.75
6753.2	18211.47
6754	18872.02
6754.8	18914.41
6755.6	18804.04
6756.4	18928.07
6757.2	19048.23
6758	19318.6
6758.8	19567.28
6759.6	19364.6
6760.4	19558.8
6761.2	19628.29
6762	19610.76
6762.8	19552.7
6763.6	19600.45
6764.4	19646.1
6765.2	19610.78
6766	19291
6766.8	19029.48
6767.6	17991.65
6768.4	18352.4
6769.2	18938.37
6770	19215.49
6770.8	18253.84
6771.6	18237.62
6772.4	18323.38
6773.2	19153.8
6774	19606.86
6774.8	19454.8
6775.6	19663.5
6776.4	19363.79
6777.2	19016.28
6778	18831.8
6778.8	18915.93
6779.6	19010.06
6780.4	19014.84
6781.2	19126.92
6782	18482.49
6782.8	18205.87
6783.6	17833.29
6784.4	17673.96
6785.2	18028.96
6786	17952.63
6786.8	17426.14
6787.6	18111.82
6788.4	18844.21
6789.2	18352.35
6790	18723.33
6790.8	18698.96
6791.6	18894.07
6792.4	18716.29
6793.2	18676.21
6794	18500.27
6794.8	18779.73
6795.6	19055.36
6796.4	18770.89
6797.2	18962.49
6798	19212.33
6798.8	18689.25
6799.6	18710.81
6800.4	18698.07
6801.2	18688.46
6802	18825.76
6802.8	19000.08
6803.6	18257.57
6804.4	18192.54
6805.2	18718.49
6806	18957.96
6806.8	18404.29
6807.6	18531.65
6808.4	18890.01
6809.2	18985.53
6810	18378.26
6810.8	18359.63
6811.6	18981.23
6812.4	18913.28
6813.2	18992.76
6814	18637.3
6814.8	18263.33
6815.6	18267.41
6816.4	19188.36
6817.2	19268.27
6818	19422.33
6818.8	19166.63
6819.6	19232.56
6820.4	18318.9
6821.2	18663.8
6822	18965.26
6822.8	19257.7
6823.6	19621.17
6824.4	19346.78
6825.2	19000.27
6826	18960.29
6826.8	19356.22
6827.6	19065.85
6828.4	18339.77
6829.2	18376.28
6830	19146.37
6830.8	19208.37
6831.6	19308.36
6832.4	19548.31
6833.2	19190.7
6834	19003.46
6834.8	19611.1
6835.6	19331.02
6836.4	19347.36
6837.2	18815.56
6838	18617.17
6838.8	18305.93
6839.6	17912.2
6840.4	17769.46
6841.2	17338.21
6842	17091.11
6842.8	17317.34
6843.6	17400.52
6844.4	17919.12
6845.2	18664.39
6846	18420.25
6846.8	18227.5
6847.6	18291.61
6848.4	18287.67
6849.2	18209.74
6850	18347.33
6850.8	18516.26
6851.6	18349.68
6852.4	18510.83
6853.2	18745.67
6854	18374.63
6854.8	17360.97
6855.6	16862.24
6856.4	17765.14
6857.2	18061.39
6858	17557.33
6858.8	18281.96
6859.6	18664.75
6860.4	18009.34
6861.2	17619.34
6862	17182.12
6862.8	17719.54
6863.6	18495.13
6864.4	18670.35
6865.2	18716.29
6866	18859.51
6866.8	17708.05
6867.6	14632.76
6868.4	12071.34
6869.2	12104.37
6870	13480.41
6870.8	13856.59
6871.6	13769.57
6872.4	13895.18
6873.2	14086.61
6874	15069.79
6874.8	14867.69
6875.6	14962.31
6876.4	15302.07
6877.2	15797.75
6878	16414.31
6878.8	17157.39
6879.6	16495.6
6880.4	17165.73
6881.2	18033.3
6882	18108.3
6882.8	17693.71
6883.6	17155.68
6884.4	17395.42
6885.2	17847.64
6886	16259.42
6886.8	15843.37
6887.6	16995.14
6888.4	17744.92
6889.2	16263.37
6890	15572.7
6890.8	16840.05
6891.6	18100.2
6892.4	16544.54
6893.2	15278.88
6894	16363.67
6894.8	17429.98
6895.6	17210.39
6896.4	15612.83
6897.2	15627.35
6898	17010.59
6898.8	18023.38
6899.6	17391.89
6900.4	15817.93
6901.2	15984.75
6902	17502.41
6902.8	18180.81
6903.6	17599.74
6904.4	16518.96
6905.2	15964.13
6906	16744.82
6906.8	17629.43
6907.6	18044.15
6908.4	17081.83
6909.2	15889.51
6910	16395.28
6910.8	17635.29
6911.6	17435.42
6912.4	17633.52
6913.2	16795.18
6914	15471.58
6914.8	15530.17
6915.6	17427.88
6916.4	17589.23
6917.2	17236.33
6918	17332.13
6918.8	16745.34
6919.6	17546.38
6920.4	18352.96
6921.2	18283.91
6922	18359.73
6922.8	17945.92
6923.6	17029.09
6924.4	16117.28
6925.2	16804.06
6926	17066.76
6926.8	17413.12
6927.6	17831.35
6928.4	17297.81
6929.2	16726.28
6930	16808.11
6930.8	17063.87
6931.6	17291.69
6932.4	17428.64
6933.2	16865.72
6934	16896.9
6934.8	17814.69
6935.6	18024.21
6936.4	18375.88
6937.2	18259.72
6938	18087.7
6938.8	18013.93
6939.6	18103.62
6940.4	17417.19
6941.2	17626.37
6942	17456.41
6942.8	17103.24
6943.6	17099.89
6944.4	17030.37
6945.2	16380.71
6946	17044.77
6946.8	17504.24
6947.6	16800.93
6948.4	17025.49
6949.2	17836.59
6950	17754.46
6950.8	17269.95
6951.6	16388.79
6952.4	17159.49
6953.2	17088.55
6954	16812.51
6954.8	17338.57
6955.6	17250.46
6956.4	16830.13
6957.2	16750.21
6958	17290.46
6958.8	17560.26
6959.6	17207.79
6960.4	17156.62
6961.2	17220.4
6962	17662.03
6962.8	17975.28
6963.6	17792
6964.4	18142.9
6965.2	17705.1
6966	17533.64
6966.8	18170.4
6967.6	18662.63
6968.4	18560.85
6969.2	18696.08
6970	18498.95
6970.8	18008.06
6971.6	18173.47
6972.4	18325.15
6973.2	18955.77
6974	18954.36
6974.8	18613.35
6975.6	18353.37
6976.4	18003.64
6977.2	17577.05
6978	16971.86
6978.8	16031.61
6979.6	16619.64
6980.4	18098.31
6981.2	18402.44
6982	18229.54
6982.8	18817.1
6983.6	19126.83
6984.4	18933.26
6985.2	18779.81
6986	18532.77
6986.8	17916.48
6987.6	18001.85
6988.4	17560.26
6989.2	17040.39
6990	17401.46
6990.8	17954.5
6991.6	18108.06
6992.4	18088.19
6993.2	17932.11
6994	17650.5
6994.8	17349.7
6995.6	18367.71
6996.4	18631.99
6997.2	18681.88
6998	18590.66
6998.8	17617.84
6999.6	17062.16
7000.4	17118.23
7001.2	17452.67
7002	17930.68
7002.8	18209.26
7003.6	17541.62
7004.4	16788.96
7005.2	16510.63
7006	16614.91
7006.8	17086.46
7007.6	17166.8
7008.4	17465.1
7009.2	17782.2
7010	17750.59
7010.8	17573.4
7011.6	17139.71
7012.4	17555.23
7013.2	17801.91
7014	18415.01
7014.8	18250.44
7015.6	17171.94
7016.4	15251.45
7017.2	15957.6
7018	17844.86
7018.8	18555.27
7019.6	18548.34
7020.4	18874.66
7021.2	18961.41
7022	19032.05
7022.8	18067.07
7023.6	17115.5
7024.4	16806.17
7025.2	17478.38
7026	18225.66
7026.8	17778.56
7027.6	17204.43
7028.4	17505.96
7029.2	17306.53
7030	17607.5
7030.8	17449.62
7031.6	17587.14
7032.4	17301.59
7033.2	17450.1
7034	17394.14
7034.8	17090.17
7035.6	17151.69
7036.4	17650.16
7037.2	17394.69
7038	16121.25
7038.8	15707.52
7039.6	16517.4
7040.4	17484.2
7041.2	18244.48
7042	18350.23
7042.8	18440.82
7043.6	18704.39
7044.4	18319.45
7045.2	17712.95
7046	18398.66
7046.8	18581.13
7047.6	18679.1
7048.4	18972.11
7049.2	18938.39
7050	19036.81
7050.8	18761.85
7051.6	18790.97
7052.4	18135.95
7053.2	17565.23
7054	18151.65
7054.8	19172.96
7055.6	19003.94
7056.4	18730.92
7057.2	18898.54
7058	18595.42
7058.8	18643.84
7059.6	18187.43
7060.4	17494.31
7061.2	18012.21
7062	18544.3
7062.8	18543.21
7063.6	18433.95
7064.4	18997.65
7065.2	18630.88
7066	17724.38
7066.8	17338.28
7067.6	17007.17
7068.4	16254.36
7069.2	16464.85
7070	17556.66
7070.8	17852.45
7071.6	17990.56
7072.4	17838.44
7073.2	18570.23
7074	18580.61
7074.8	18495.03
7075.6	18597.63
7076.4	18516.29
7077.2	18714.08
7078	18815.26
7078.8	18929.72
7079.6	18977.38
7080.4	19367.6
7081.2	19353.36
7082	19355.85
7082.8	18928.96
7083.6	18149.98
7084.4	17353.36
7085.2	16618.75
7086	18082.92
7086.8	18168.31
7087.6	18031.67
7088.4	18256.69
7089.2	18226.34
7090	17697.38
7090.8	17301.38
7091.6	17861.2
7092.4	18119.91
7093.2	17574.27
7094	18360.74
7094.8	18656.16
7095.6	18222.41
7096.4	18537.99
7097.2	18584.8
7098	18607.05
7098.8	18990.28
7099.6	18822.04
7100.4	18602.34
7101.2	18473.76
7102	18256.94
7102.8	18165.19
7103.6	18146.46
7104.4	18394.71
7105.2	18428.16
7106	18069.35
7106.8	17728.34
7107.6	17018.67
7108.4	17358.08
7109.2	17642.43
7110	17450.71
7110.8	17028.88
7111.6	16779.92
7112.4	16919.48
7113.2	17216.32
7114	17546.63
7114.8	17359.33
7115.6	17066.34
7116.4	17346.74
7117.2	17277.48
7118	17141.62
7118.8	17070.47
7119.6	16940.53
7120.4	16744.24
7121.2	17362.4
7122	16648.11
7122.8	15971.02
7123.6	17400.59
7124.4	17262.77
7125.2	16915.4
7126	16612.09
7126.8	16713.97
7127.6	16336.25
7128.4	16554.56
7129.2	16815.85
7130	16230.87
7130.8	15640.88
7131.6	15652.34
7132.4	16596.16
7133.2	16431.19
7134	17047.64
7134.8	17458.46
7135.6	17141.66
7136.4	17289.43
7137.2	17888.04
7138	17937.25
7138.8	17534.08
7139.6	17145.33
7140.4	17253.67
7141.2	17991.17
7142	17826.88
7142.8	17352.29
7143.6	17469.26
7144.4	17711.26
7145.2	16908.11
7146	16925.36
7146.8	17686.83
7147.6	16893.62
7148.4	15608.05
7149.2	16687.2
7150	17491.31
7150.8	17056.92
7151.6	16858.01
7152.4	17589.54
7153.2	18064.08
7154	17824.77
7154.8	17545.95
7155.6	16302.97
7156.4	16699.8
7157.2	17641.55
7158	17206
7158.8	16552.6
7159.6	16305.08
7160.4	16116.33
7161.2	16197.48
7162	16134.69
7162.8	15720.79
